Frequency frq	Current I	Voltage U2	Impedance Z
frq/Hz	I/mA	U2/mV	Z/Ohm

20	2.30	9062	3941.34
40	4.47	9052	2023.96
60	6.43	9042	1406.60
80	7.95	9032	1136.18
100	9.15	9027	987.13
120	10.01	9035	902.18
140	10.67	9025	846.11
160	10.88	9035	830.12
180	11.21	9025	805.10
200	11.21	9042	806.65
220	11.10	9032	813.65
240	11.05	9042	818.55
260	10.88	9037	830.35
280	10.56	9055	857.64
300	10.39	9042	869.89
320	10.01	9050	903.67
340	9.91	9037	912.33
360	9.63	9045	938.83
380	9.36	9047	966.34
400	9.04	9047	1001.20
420	8.82	9040	1025.03
440	8.44	9045	1071.81
460	8.28	9052	1093.82
480	7.95	9047	1138.05
500	7.73	9052	1170.68
520	7.46	9052	1213.31
540	7.24	9055	1250.05
560	7.03	9045	1287.30
580	6.81	9050	1329.12
600	6.65	9057	1362.85
620	6.37	9045	1418.98
640	6.37	9055	1420.54
660	6.10	9045	1482.14
680	5.94	9062	1525.75
700	5.78	9060	1568.37
720	5.56	9050	1627.89
740	5.45	9065	1663.09
760	5.29	9050	1711.53
