Frequency frq	Current I	Voltage U2	Impedance Z
frq/Hz	I/mA	U2/mV	Z/Ohm

20	5.02	9055	1805.22
40	10.23	9045	883.99
60	15.72	9027	574.29
80	20.01	9007	450.12
100	23.33	8990	385.41
120	24.90	8998	361.33
140	24.96	9002	360.74
160	23.98	9002	375.45
180	22.51	9002	399.92
200	21.10	9002	426.70
220	20.23	9025	446.14
240	18.71	9025	482.42
260	17.35	9017	519.76
280	16.05	9025	562.47
300	14.85	9042	608.91
320	14.47	9035	624.40
340	13.49	9045	670.40
360	12.62	9045	716.57
380	11.86	9047	762.73
400	11.26	9042	802.76
420	10.61	9050	852.78
440	10.18	9047	888.96
460	9.85	9050	918.63
480	9.47	9042	954.73
500	8.93	9055	1014.22
520	8.55	9045	1058.19
540	8.11	9060	1116.72
560	7.73	9052	1170.68
580	7.52	9052	1204.54
600	7.24	9052	1249.71
620	7.08	9055	1278.83
640	6.81	9052	1329.49
660	6.54	9055	1385.12
680	6.32	9055	1432.75
700	6.16	9045	1469.06
720	5.94	9055	1524.49
740	5.72	9072	1585.44
760	5.50	9055	1644.87
780	5.34	9062	1696.45
