Frequency frq	Current I	Voltage U2	Impedance Z
frq/Hz	I/mA	U2/mV	Z/Ohm

20	42.61	4629	108.64
40	40.06	4928	123.01
60	37.02	5311	143.47
80	33.32	5697	170.95
100	29.68	6057	204.07
120	26.80	6318	235.74
140	24.58	6535	265.91
160	23.00	6709	291.70
180	21.91	6826	311.50
200	21.10	6910	327.54
220	20.77	6970	335.55
240	20.66	7017	339.61
260	21.32	7020	329.33
280	22.40	7042	314.36
300	23.87	7030	294.52
320	24.68	7025	284.59
340	26.31	6990	265.64
360	27.94	6960	249.08
380	29.68	6915	232.98
400	31.48	6863	218.05
420	33.05	6818	206.30
440	33.97	6786	199.74
460	35.60	6729	188.99
480	37.29	6662	178.65
500	38.86	6592	169.62
520	40.28	6537	162.31
540	41.85	6463	154.41
560	43.27	6396	147.82
580	44.73	6326	141.42
600	45.33	6286	138.67
620	46.63	6214	133.25
640	47.94	6142	128.12
660	49.13	6060	123.33
680	50.38	6002	119.14
700	51.47	5925	115.12
720	52.45	5856	111.65
740	53.53	5781	107.99
760	54.13	5756	106.34
780	55.11	5672	102.92
